input 1/mode 1/transmission: Angle(TE transmission) vs wavelength

wavelength(nm), Angle(TE transmission)
1600, -2.24579
1599.95, -1.84723
1599.89, -1.44862
1599.84, -1.04993
1599.79, -0.651076
1599.73, -0.251948
1599.68, 0.147673
1599.63, 0.548138
1599.57, 0.949881
1599.52, 1.35325
1599.47, 1.75825
1599.41, 2.16431
1599.36, 2.57028
1599.31, 2.97487
1599.25, 3.37721
1599.2, 3.77745
1599.15, 4.17678
1599.09, 4.577
1599.04, 4.9797
1598.99, 5.38537
1598.93, 5.7931
1598.88, 6.20101
1598.83, 6.60733
1598.77, 7.01146
1598.72, 7.4142
1598.67, 7.81719
1598.61, 8.2219
1598.56, 8.62866
1598.51, 9.03653
1598.45, 9.44387
1598.4, 9.84939
1598.35, 10.2529
1598.3, 10.6554
1598.24, 11.0581
1598.19, 11.4619
1598.14, 11.8669
1598.08, 12.2725
1598.03, 12.678
1597.98, 13.0832
1597.92, 13.4886
1597.87, 13.8946
1597.82, 14.3012
1597.76, 14.7074
1597.71, 15.1119
1597.66, 15.514
1597.6, 15.914
1597.55, 16.3135
1597.5, 16.7143
1597.44, 17.1177
1597.39, 17.5239
1597.34, 17.9316
1597.28, 18.3391
1597.23, 18.7452
1597.18, 19.15
1597.13, 19.554
1597.07, 19.9582
1597.02, 20.3626
1596.97, 20.7665
1596.91, 21.1693
1596.86, 21.5701
1596.81, 21.9693
1596.75, 22.368
1596.7, 22.7672
1596.65, 23.1675
1596.59, 23.5684
1596.54, 23.9693
1596.49, 24.3693
1596.43, 24.7685
1596.38, 25.1676
1596.33, 25.5674
1596.28, 25.9688
1596.22, 26.3721
1596.17, 26.7768
1596.12, 27.1824
1596.06, 27.5882
1596.01, 27.9941
1595.96, 28.4004
1595.9, 28.8075
1595.85, 29.2157
1595.8, 29.6254
1595.74, 30.0367
1595.69, 30.4494
1595.64, 30.8635
1595.59, 31.2789
1595.53, 31.6953
1595.48, 32.1126
1595.43, 32.5305
1595.37, 32.9487
1595.32, 33.3671
1595.27, 33.7848
1595.21, 34.2002
1595.16, 34.6113
1595.11, 35.0164
1595.06, 35.4149
1595, 35.8077
1594.95, 36.1974
1594.9, 36.5875
1594.84, 36.9815
1594.79, 37.3817
1594.74, 37.7889
1594.68, 38.2015
1594.63, 38.617
1594.58, 39.0321
1594.53, 39.4445
1594.47, 39.8526
1594.42, 40.2558
1594.37, 40.6536
1594.31, 41.0459
1594.26, 41.4326
1594.21, 41.8141
1594.15, 42.1915
1594.1, 42.5658
1594.05, 42.9389
1594, 43.3125
1593.94, 43.6883
1593.89, 44.0686
1593.84, 44.4545
1593.78, 44.8469
1593.73, 45.2464
1593.68, 45.6523
1593.63, 46.0633
1593.57, 46.4773
1593.52, 46.892
1593.47, 47.3051
1593.41, 47.715
1593.36, 48.1211
1593.31, 48.5237
1593.26, 48.9241
1593.2, 49.3241
1593.15, 49.7258
1593.1, 50.131
1593.04, 50.5416
1592.99, 50.9588
1592.94, 51.3828
1592.89, 51.8132
1592.83, 52.2487
1592.78, 52.6868
1592.73, 53.1246
1592.67, 53.5587
1592.62, 53.9853
1592.57, 54.4004
1592.52, 54.7989
1592.46, 55.172
1592.41, 55.4966
1592.36, 55.676
1592.3, 54.0252
1592.25, 51.3861
1592.2, 51.3712
1592.15, 51.6408
1592.09, 51.9737
1592.04, 52.3337
1591.99, 52.7101
1591.93, 53.0977
1591.88, 53.4932
1591.83, 53.8932
1591.78, 54.2944
1591.72, 54.6939
1591.67, 55.0898
1591.62, 55.4807
1591.56, 55.8664
1591.51, 56.2473
1591.46, 56.6244
1591.41, 56.9989
1591.35, 57.3722
1591.3, 57.7459
1591.25, 58.1215
1591.2, 58.5006
1591.14, 58.8843
1591.09, 59.2736
1591.04, 59.6686
1590.98, 60.069
1590.93, 60.474
1590.88, 60.8822
1590.83, 61.2922
1590.77, 61.7027
1590.72, 62.1128
1590.67, 62.5227
1590.62, 62.9325
1590.56, 63.3429
1590.51, 63.7542
1590.46, 64.167
1590.4, 64.5816
1590.35, 64.9984
1590.3, 65.4179
1590.25, 65.8399
1590.19, 66.2638
1590.14, 66.6888
1590.09, 67.1136
1590.04, 67.5374
1589.98, 67.9597
1589.93, 68.3804
1589.88, 68.7992
1589.83, 69.2156
1589.77, 69.6287
1589.72, 70.0376
1589.67, 70.4417
1589.61, 70.8415
1589.56, 71.2384
1589.51, 71.6343
1589.46, 72.0311
1589.4, 72.4305
1589.35, 72.8329
1589.3, 73.238
1589.25, 73.6445
1589.19, 74.0508
1589.14, 74.4558
1589.09, 74.8589
1589.04, 75.2602
1588.98, 75.6603
1588.93, 76.0597
1588.88, 76.4585
1588.83, 76.8568
1588.77, 77.2545
1588.72, 77.6515
1588.67, 78.048
1588.61, 78.4443
1588.56, 78.841
1588.51, 79.2386
1588.46, 79.6378
1588.4, 80.0386
1588.35, 80.441
1588.3, 80.8448
1588.25, 81.2493
1588.19, 81.654
1588.14, 82.0582
1588.09, 82.462
1588.04, 82.8655
1587.98, 83.2693
1587.93, 83.6742
1587.88, 84.0807
1587.83, 84.4892
1587.77, 84.8987
1587.72, 85.3084
1587.67, 85.7174
1587.62, 86.1252
1587.56, 86.532
1587.51, 86.9385
1587.46, 87.3454
1587.41, 87.753
1587.35, 88.1609
1587.3, 88.5686
1587.25, 88.9755
1587.2, 89.3814
1587.14, 89.7866
1587.09, 90.1919
1587.04, 90.5976
1586.99, 91.0039
1586.93, 91.4104
1586.88, 91.8166
1586.83, 92.2225
1586.78, 92.6284
1586.72, 93.0348
1586.67, 93.4415
1586.62, 93.848
1586.57, 94.253
1586.51, 94.6556
1586.46, 95.0558
1586.41, 95.4551
1586.36, 95.8556
1586.3, 96.2595
1586.25, 96.6675
1586.2, 97.0783
1586.15, 97.4891
1586.1, 97.8974
1586.04, 98.3019
1585.99, 98.7036
1585.94, 99.105
1585.89, 99.5083
1585.83, 99.9147
1585.78, 100.323
1585.73, 100.732
1585.68, 101.138
1585.62, 101.542
1585.57, 101.944
1585.52, 102.348
1585.47, 102.753
1585.41, 103.161
1585.36, 103.569
1585.31, 103.975
1585.26, 104.377
1585.2, 104.776
1585.15, 105.173
1585.1, 105.571
1585.05, 105.971
1585, 106.375
1584.94, 106.782
1584.89, 107.19
1584.84, 107.599
1584.79, 108.008
1584.73, 108.417
1584.68, 108.827
1584.63, 109.237
1584.58, 109.648
1584.52, 110.059
1584.47, 110.471
1584.42, 110.883
1584.37, 111.296
1584.32, 111.709
1584.26, 112.123
1584.21, 112.538
1584.16, 112.953
1584.11, 113.366
1584.05, 113.779
1584, 114.189
1583.95, 114.595
1583.9, 114.997
1583.84, 115.394
1583.79, 115.787
1583.74, 116.18
1583.69, 116.576
1583.64, 116.976
1583.58, 117.383
1583.53, 117.794
1583.48, 118.207
1583.43, 118.618
1583.37, 119.023
1583.32, 119.423
1583.27, 119.818
1583.22, 120.211
1583.17, 120.602
1583.11, 120.993
1583.06, 121.384
1583.01, 121.774
1582.96, 122.162
1582.9, 122.549
1582.85, 122.935
1582.8, 123.321
1582.75, 123.709
1582.7, 124.099
1582.64, 124.494
1582.59, 124.895
1582.54, 125.301
1582.49, 125.712
1582.43, 126.128
1582.38, 126.545
1582.33, 126.963
1582.28, 127.38
1582.23, 127.794
1582.17, 128.206
1582.12, 128.618
1582.07, 129.03
1582.02, 129.445
1581.97, 129.862
1581.91, 130.283
1581.86, 130.706
1581.81, 131.132
1581.76, 131.56
1581.7, 131.989
1581.65, 132.42
1581.6, 132.852
1581.55, 133.284
1581.5, 133.714
1581.44, 134.141
1581.39, 134.564
1581.34, 134.979
1581.29, 135.388
1581.24, 135.789
1581.18, 136.183
1581.13, 136.571
1581.08, 136.954
1581.03, 137.335
1580.98, 137.712
1580.92, 138.085
1580.87, 138.452
1580.82, 138.807
1580.77, 139.133
1580.72, 139.375
1580.66, 139.096
1580.61, 141.789
1580.56, 141.326
1580.51, 141.551
1580.46, 141.869
1580.4, 142.217
1580.35, 142.578
1580.3, 142.947
1580.25, 143.319
1580.19, 143.696
1580.14, 144.077
1580.09, 144.461
1580.04, 144.849
1579.99, 145.241
1579.93, 145.636
1579.88, 146.035
1579.83, 146.437
1579.78, 146.842
1579.73, 147.25
1579.67, 147.661
1579.62, 148.075
1579.57, 148.492
1579.52, 148.91
1579.47, 149.331
1579.41, 149.753
1579.36, 150.176
1579.31, 150.601
1579.26, 151.027
1579.21, 151.453
1579.16, 151.881
1579.1, 152.308
1579.05, 152.734
1579, 153.157
1578.95, 153.577
1578.9, 153.994
1578.84, 154.407
1578.79, 154.819
1578.74, 155.229
1578.69, 155.639
1578.64, 156.049
1578.58, 156.458
1578.53, 156.866
1578.48, 157.273
1578.43, 157.68
1578.38, 158.085
1578.32, 158.49
1578.27, 158.894
1578.22, 159.298
1578.17, 159.699
1578.12, 160.098
1578.06, 160.494
1578.01, 160.889
1577.96, 161.281
1577.91, 161.673
1577.86, 162.065
1577.81, 162.457
1577.75, 162.85
1577.7, 163.243
1577.65, 163.636
1577.6, 164.03
1577.55, 164.424
1577.49, 164.82
1577.44, 165.219
1577.39, 165.62
1577.34, 166.024
1577.29, 166.43
1577.24, 166.839
1577.18, 167.247
1577.13, 167.656
1577.08, 168.065
1577.03, 168.473
1576.98, 168.882
1576.92, 169.291
1576.87, 169.702
1576.82, 170.114
1576.77, 170.527
1576.72, 170.94
1576.67, 171.351
1576.61, 171.761
1576.56, 172.171
1576.51, 172.58
1576.46, 172.989
1576.41, 173.399
1576.35, 173.81
1576.3, 174.22
1576.25, 174.628
1576.2, 175.036
1576.15, 175.442
1576.1, 175.848
1576.04, 176.256
1575.99, 176.664
1575.94, 177.072
1575.89, 177.48
1575.84, 177.885
1575.79, 178.289
1575.73, 178.694
1575.68, 179.099
1575.63, 179.507
1575.58, 179.916
1575.53, 180.324
1575.48, 180.728
1575.42, 181.13
1575.37, 181.53
1575.32, 181.932
1575.27, 182.339
1575.22, 182.75
1575.16, 183.164
1575.11, 183.577
1575.06, 183.984
1575.01, 184.384
1574.96, 184.781
1574.91, 185.179
1574.85, 185.581
1574.8, 185.99
1574.75, 186.403
1574.7, 186.817
1574.65, 187.227
1574.6, 187.631
1574.54, 188.031
1574.49, 188.433
1574.44, 188.838
1574.39, 189.249
1574.34, 189.662
1574.29, 190.074
1574.24, 190.48
1574.18, 190.879
1574.13, 191.276
1574.08, 191.673
1574.03, 192.074
1573.98, 192.481
1573.93, 192.892
1573.87, 193.304
1573.82, 193.714
1573.77, 194.121
1573.72, 194.527
1573.67, 194.934
1573.62, 195.342
1573.56, 195.753
1573.51, 196.163
1573.46, 196.573
1573.41, 196.981
1573.36, 197.389
1573.31, 197.798
1573.25, 198.21
1573.2, 198.622
1573.15, 199.035
1573.1, 199.447
1573.05, 199.857
1573, 200.267
1572.95, 200.676
1572.89, 201.085
1572.84, 201.492
1572.79, 201.896
1572.74, 202.297
1572.69, 202.696
1572.64, 203.096
1572.58, 203.496
1572.53, 203.899
1572.48, 204.303
1572.43, 204.705
1572.38, 205.103
1572.33, 205.496
1572.28, 205.886
1572.22, 206.277
1572.17, 206.671
1572.12, 207.07
1572.07, 207.475
1572.02, 207.883
1571.97, 208.292
1571.92, 208.698
1571.86, 209.101
1571.81, 209.501
1571.76, 209.899
1571.71, 210.297
1571.66, 210.695
1571.61, 211.095
1571.55, 211.498
1571.5, 211.905
1571.45, 212.315
1571.4, 212.729
1571.35, 213.145
1571.3, 213.564
1571.25, 213.984
1571.19, 214.404
1571.14, 214.826
1571.09, 215.248
1571.04, 215.671
1570.99, 216.094
1570.94, 216.514
1570.89, 216.93
1570.83, 217.341
1570.78, 217.747
1570.73, 218.15
1570.68, 218.552
1570.63, 218.957
1570.58, 219.367
1570.53, 219.782
1570.48, 220.204
1570.42, 220.631
1570.37, 221.061
1570.32, 221.49
1570.27, 221.917
1570.22, 222.339
1570.17, 222.754
1570.12, 223.161
1570.06, 223.56
1570.01, 223.95
1569.96, 224.331
1569.91, 224.704
1569.86, 225.071
1569.81, 225.433
1569.76, 225.793
1569.7, 226.155
1569.65, 226.52
1569.6, 226.89
1569.55, 227.268
1569.5, 227.653
1569.45, 228.044
1569.4, 228.436
1569.35, 228.824
1569.29, 229.194
1569.24, 229.512
1569.19, 229.621
1569.14, 229.569
1569.09, 231.606
1569.04, 231.733
1568.99, 232.034
1568.94, 232.379
1568.88, 232.743
1568.83, 233.118
1568.78, 233.503
1568.73, 233.898
1568.68, 234.303
1568.63, 234.718
1568.58, 235.141
1568.52, 235.572
1568.47, 236.007
1568.42, 236.443
1568.37, 236.879
1568.32, 237.311
1568.27, 237.738
1568.22, 238.159
1568.17, 238.572
1568.11, 238.978
1568.06, 239.379
1568.01, 239.774
1567.96, 240.167
1567.91, 240.56
1567.86, 240.956
1567.81, 241.357
1567.76, 241.764
1567.71, 242.179
1567.65, 242.599
1567.6, 243.024
1567.55, 243.45
1567.5, 243.872
1567.45, 244.29
1567.4, 244.702
1567.35, 245.107
1567.3, 245.505
1567.24, 245.899
1567.19, 246.287
1567.14, 246.673
1567.09, 247.056
1567.04, 247.439
1566.99, 247.822
1566.94, 248.206
1566.89, 248.592
1566.84, 248.981
1566.78, 249.372
1566.73, 249.767
1566.68, 250.166
1566.63, 250.568
1566.58, 250.973
1566.53, 251.383
1566.48, 251.796
1566.43, 252.21
1566.38, 252.625
1566.32, 253.038
1566.27, 253.448
1566.22, 253.857
1566.17, 254.266
1566.12, 254.675
1566.07, 255.085
1566.02, 255.496
1565.97, 255.909
1565.92, 256.322
1565.86, 256.735
1565.81, 257.148
1565.76, 257.56
1565.71, 257.973
1565.66, 258.385
1565.61, 258.797
1565.56, 259.209
1565.51, 259.62
1565.46, 260.029
1565.4, 260.439
1565.35, 260.847
1565.3, 261.255
1565.25, 261.664
1565.2, 262.071
1565.15, 262.478
1565.1, 262.883
1565.05, 263.288
1565, 263.692
1564.95, 264.097
1564.89, 264.503
1564.84, 264.911
1564.79, 265.319
1564.74, 265.727
1564.69, 266.133
1564.64, 266.538
1564.59, 266.94
1564.54, 267.342
1564.49, 267.745
1564.44, 268.15
1564.38, 268.558
1564.33, 268.967
1564.28, 269.376
1564.23, 269.783
1564.18, 270.188
1564.13, 270.591
1564.08, 270.993
1564.03, 271.396
1563.98, 271.802
1563.93, 272.212
1563.87, 272.622
1563.82, 273.032
1563.77, 273.44
1563.72, 273.843
1563.67, 274.245
1563.62, 274.646
1563.57, 275.049
1563.52, 275.455
1563.47, 275.864
1563.42, 276.274
1563.37, 276.683
1563.31, 277.091
1563.26, 277.496
1563.21, 277.9
1563.16, 278.305
1563.11, 278.712
1563.06, 279.12
1563.01, 279.528
1562.96, 279.937
1562.91, 280.344
1562.86, 280.751
1562.81, 281.158
1562.75, 281.565
1562.7, 281.973
1562.65, 282.381
1562.6, 282.789
1562.55, 283.197
1562.5, 283.605
1562.45, 284.013
1562.4, 284.422
1562.35, 284.831
1562.3, 285.24
1562.25, 285.647
1562.19, 286.053
1562.14, 286.459
1562.09, 286.866
1562.04, 287.274
1561.99, 287.682
1561.94, 288.09
1561.89, 288.495
1561.84, 288.899
1561.79, 289.3
1561.74, 289.701
1561.69, 290.102
1561.64, 290.505
1561.59, 290.908
1561.53, 291.31
1561.48, 291.71
1561.43, 292.107
1561.38, 292.503
1561.33, 292.9
1561.28, 293.3
1561.23, 293.705
1561.18, 294.113
1561.13, 294.522
1561.08, 294.932
1561.03, 295.34
1560.98, 295.747
1560.92, 296.152
1560.87, 296.557
1560.82, 296.964
1560.77, 297.371
1560.72, 297.78
1560.67, 298.19
1560.62, 298.6
1560.57, 299.012
1560.52, 299.425
1560.47, 299.839
1560.42, 300.255
1560.37, 300.672
1560.32, 301.089
1560.27, 301.506
1560.21, 301.923
1560.16, 302.338
1560.11, 302.752
1560.06, 303.162
1560.01, 303.569
1559.96, 303.973
1559.91, 304.375
1559.86, 304.778
1559.81, 305.183
1559.76, 305.593
1559.71, 306.007
1559.66, 306.426
1559.61, 306.846
1559.56, 307.267
1559.5, 307.685
1559.45, 308.1
1559.4, 308.511
1559.35, 308.918
1559.3, 309.318
1559.25, 309.712
1559.2, 310.101
1559.15, 310.483
1559.1, 310.86
1559.05, 311.234
1559, 311.605
1558.95, 311.976
1558.9, 312.349
1558.85, 312.727
1558.8, 313.111
1558.75, 313.503
1558.69, 313.904
1558.64, 314.312
1558.59, 314.727
1558.54, 315.145
1558.49, 315.565
1558.44, 315.983
1558.39, 316.398
1558.34, 316.808
1558.29, 317.212
1558.24, 317.611
1558.19, 318.004
1558.14, 318.393
1558.09, 318.778
1558.04, 319.158
1557.99, 319.527
1557.94, 319.87
1557.89, 320.121
1557.83, 319.654
1557.78, 322.4
1557.73, 322.187
1557.68, 322.475
1557.63, 322.843
1557.58, 323.236
1557.53, 323.638
1557.48, 324.042
1557.43, 324.443
1557.38, 324.841
1557.33, 325.236
1557.28, 325.628
1557.23, 326.019
1557.18, 326.41
1557.13, 326.803
1557.08, 327.199
1557.03, 327.6
1556.98, 328.006
1556.93, 328.416
1556.87, 328.829
1556.82, 329.244
1556.77, 329.657
1556.72, 330.069
1556.67, 330.476
1556.62, 330.878
1556.57, 331.276
1556.52, 331.669
1556.47, 332.059
1556.42, 332.447
1556.37, 332.833
1556.32, 333.219
1556.27, 333.604
1556.22, 333.99
1556.17, 334.377
1556.12, 334.766
1556.07, 335.158
1556.02, 335.553
1555.97, 335.951
1555.92, 336.354
1555.87, 336.761
1555.81, 337.172
1555.76, 337.587
1555.71, 338.003
1555.66, 338.42
1555.61, 338.836
1555.56, 339.25
1555.51, 339.663
1555.46, 340.074
1555.41, 340.485
1555.36, 340.896
1555.31, 341.308
1555.26, 341.722
1555.21, 342.135
1555.16, 342.549
1555.11, 342.962
1555.06, 343.375
1555.01, 343.786
1554.96, 344.198
1554.91, 344.609
1554.86, 345.021
1554.81, 345.432
1554.76, 345.843
1554.71, 346.253
1554.66, 346.662
1554.61, 347.07
1554.56, 347.476
1554.5, 347.882
1554.45, 348.286
1554.4, 348.69
1554.35, 349.093
1554.3, 349.496
1554.25, 349.899
1554.2, 350.302
1554.15, 350.707
1554.1, 351.112
1554.05, 351.518
1554, 351.923
1553.95, 352.326
1553.9, 352.728
1553.85, 353.128
1553.8, 353.527
1553.75, 353.929
1553.7, 354.333
1553.65, 354.74
1553.6, 355.15
1553.55, 355.56
1553.5, 355.969
1553.45, 356.375
1553.4, 356.779
1553.35, 357.182
1553.3, 357.587
1553.25, 357.993
1553.2, 358.402
1553.15, 358.812
1553.1, 359.221
1553.05, 359.626
1553, 360.028
1552.95, 360.428
1552.9, 360.828
1552.85, 361.231
1552.8, 361.638
1552.74, 362.049
1552.69, 362.461
1552.64, 362.872
1552.59, 363.28
1552.54, 363.685
1552.49, 364.089
1552.44, 364.492
1552.39, 364.896
1552.34, 365.303
1552.29, 365.711
1552.24, 366.119
1552.19, 366.526
1552.14, 366.933
1552.09, 367.339
1552.04, 367.746
1551.99, 368.153
1551.94, 368.56
1551.89, 368.966
1551.84, 369.372
1551.79, 369.777
1551.74, 370.183
1551.69, 370.59
1551.64, 370.998
1551.59, 371.406
1551.54, 371.813
1551.49, 372.218
1551.44, 372.623
1551.39, 373.028
1551.34, 373.435
1551.29, 373.843
1551.24, 374.251
1551.19, 374.659
1551.14, 375.064
1551.09, 375.466
1551.04, 375.866
1550.99, 376.268
1550.94, 376.672
1550.89, 377.079
1550.84, 377.487
1550.79, 377.896
1550.74, 378.302
1550.69, 378.705
1550.64, 379.106
1550.59, 379.507
1550.54, 379.91
1550.49, 380.316
1550.44, 380.723
1550.39, 381.131
1550.34, 381.538
1550.29, 381.943
1550.24, 382.347
1550.19, 382.752
1550.14, 383.158
1550.09, 383.565
1550.04, 383.974
1549.99, 384.383
1549.94, 384.792
1549.89, 385.2
1549.84, 385.609
1549.79, 386.018
1549.74, 386.428
1549.69, 386.838
1549.64, 387.249
1549.59, 387.659
1549.54, 388.069
1549.49, 388.478
1549.44, 388.888
1549.39, 389.298
1549.34, 389.708
1549.29, 390.117
1549.24, 390.526
1549.19, 390.934
1549.14, 391.341
1549.09, 391.749
1549.04, 392.158
1548.99, 392.566
1548.94, 392.973
1548.89, 393.379
1548.84, 393.783
1548.79, 394.184
1548.74, 394.585
1548.69, 394.984
1548.64, 395.384
1548.59, 395.783
1548.54, 396.183
1548.49, 396.582
1548.44, 396.98
1548.39, 397.379
1548.34, 397.777
1548.29, 398.175
1548.24, 398.573
1548.19, 398.972
1548.14, 399.372
1548.09, 399.772
1548.04, 400.173
1547.99, 400.576
1547.94, 400.979
1547.89, 401.383
1547.84, 401.788
1547.79, 402.193
1547.74, 402.598
1547.69, 403.004
1547.64, 403.41
1547.59, 403.816
1547.54, 404.223
1547.49, 404.631
1547.44, 405.039
1547.39, 405.448
1547.34, 405.857
1547.29, 406.266
1547.24, 406.675
1547.19, 407.083
1547.14, 407.49
1547.09, 407.896
1547.04, 408.301
1546.99, 408.703
1546.94, 409.102
1546.89, 409.496
1546.84, 409.879
1546.79, 410.243
1546.74, 410.556
1546.69, 410.667
1546.64, 411.037
1546.59, 412.656
1546.54, 412.784
1546.49, 413.095
1546.44, 413.451
1546.39, 413.825
1546.34, 414.208
1546.29, 414.594
1546.24, 414.983
1546.19, 415.374
1546.14, 415.767
1546.09, 416.161
1546.04, 416.558
1545.99, 416.956
1545.94, 417.355
1545.89, 417.757
1545.84, 418.159
1545.79, 418.563
1545.74, 418.968
1545.69, 419.372
1545.64, 419.775
1545.6, 420.177
1545.55, 420.577
1545.5, 420.975
1545.45, 421.372
1545.4, 421.767
1545.35, 422.163
1545.3, 422.56
1545.25, 422.958
1545.2, 423.359
1545.15, 423.762
1545.1, 424.168
1545.05, 424.575
1545, 424.984
1544.95, 425.394
1544.9, 425.804
1544.85, 426.215
1544.8, 426.626
1544.75, 427.037
1544.7, 427.448
1544.65, 427.859
1544.6, 428.27
1544.55, 428.68
1544.5, 429.088
1544.45, 429.496
1544.4, 429.902
1544.35, 430.31
1544.3, 430.718
1544.25, 431.128
1544.2, 431.539
1544.15, 431.95
1544.1, 432.361
1544.05, 432.77
1544, 433.179
1543.95, 433.586
1543.9, 433.992
1543.86, 434.398
1543.81, 434.802
1543.76, 435.205
1543.71, 435.608
1543.66, 436.011
1543.61, 436.414
1543.56, 436.818
1543.51, 437.222
1543.46, 437.627
1543.41, 438.03
1543.36, 438.432
1543.31, 438.833
1543.26, 439.233
1543.21, 439.636
1543.16, 440.041
1543.11, 440.45
1543.06, 440.862
1543.01, 441.275
1542.96, 441.685
1542.91, 442.093
1542.86, 442.497
1542.81, 442.899
1542.76, 443.302
1542.71, 443.706
1542.66, 444.111
1542.61, 444.518
1542.57, 444.925
1542.52, 445.33
1542.47, 445.734
1542.42, 446.138
1542.37, 446.542
1542.32, 446.949
1542.27, 447.357
1542.22, 447.766
1542.17, 448.174
1542.12, 448.58
1542.07, 448.986
1542.02, 449.39
1541.97, 449.794
1541.92, 450.2
1541.87, 450.606
1541.82, 451.013
1541.77, 451.421
1541.72, 451.828
1541.67, 452.236
1541.62, 452.643
1541.57, 453.051
1541.52, 453.458
1541.48, 453.863
1541.43, 454.267
1541.38, 454.669
1541.33, 455.071
1541.28, 455.475
1541.23, 455.88
1541.18, 456.289
1541.13, 456.698
1541.08, 457.107
1541.03, 457.513
1540.98, 457.916
1540.93, 458.319
1540.88, 458.722
1540.83, 459.127
1540.78, 459.535
1540.73, 459.945
1540.68, 460.354
1540.63, 460.759
1540.58, 461.162
1540.54, 461.563
1540.49, 461.964
1540.44, 462.367
1540.39, 462.775
1540.34, 463.185
1540.29, 463.596
1540.24, 464.006
1540.19, 464.412
1540.14, 464.816
1540.09, 465.218
1540.04, 465.622
1539.99, 466.027
1539.94, 466.434
1539.89, 466.841
1539.84, 467.248
1539.79, 467.653
1539.74, 468.057
1539.7, 468.461
1539.65, 468.866
1539.6, 469.272
1539.55, 469.679
1539.5, 470.086
1539.45, 470.492
1539.4, 470.897
1539.35, 471.302
1539.3, 471.708
1539.25, 472.114
1539.2, 472.522
